#temperature (K)# #Gibbs free energy (kJ / mol)#
100.0 -3102.35569717
110.0 -3103.38817835
120.0 -3104.44173104
130.0 -3105.5150935
140.0 -3106.60718536
150.0 -3107.71705719
160.0 -3108.84385867
170.0 -3109.98681823
180.0 -3111.14522944
190.0 -3112.31844137
200.0 -3113.50585132
210.0 -3114.70689899
220.0 -3115.92106178
230.0 -3117.1478508
240.0 -3118.38680756
250.0 -3119.63750113
260.0 -3120.89952576
270.0 -3122.17249881
280.0 -3123.45605902
290.0 -3124.74986491
300.0 -3126.05359346
310.0 -3127.36693884
320.0 -3128.68961132
330.0 -3130.02133621
340.0 -3131.36185295
350.0 -3132.71091422
360.0 -3134.06828511
370.0 -3135.43374234
380.0 -3136.80707357
390.0 -3138.18807667
400.0 -3139.57655916
410.0 -3140.97233757
420.0 -3142.37523689
430.0 -3143.78509006
440.0 -3145.20173752
450.0 -3146.62502668
460.0 -3148.05481159
470.0 -3149.49095251
480.0 -3150.93331553
490.0 -3152.38177227
500.0 -3153.83619955
510.0 -3155.29647907
520.0 -3156.76249721
530.0 -3158.23414469
540.0 -3159.71131642
550.0 -3161.1939112
560.0 -3162.68183157
570.0 -3164.17498362
580.0 -3165.67327677
590.0 -3167.17662364
600.0 -3168.68493989
610.0 -3170.19814406
620.0 -3171.71615744
630.0 -3173.23890395
640.0 -3174.76631
650.0 -3176.2983044
660.0 -3177.83481825
670.0 -3179.37578481
680.0 -3180.92113946
690.0 -3182.47081954
700.0 -3184.02476434
710.0 -3185.58291497
720.0 -3187.14521428
730.0 -3188.71160684
740.0 -3190.28203882
750.0 -3191.85645794
760.0 -3193.43481344
770.0 -3195.01705596
780.0 -3196.60313754
790.0 -3198.19301155
800.0 -3199.78663263
810.0 -3201.38395664
820.0 -3202.98494063
830.0 -3204.5895428
840.0 -3206.19772244
850.0 -3207.80943988
860.0 -3209.42465649
870.0 -3211.04333463
880.0 -3212.66543758
890.0 -3214.29092955
900.0 -3215.91977564
910.0 -3217.55194179
920.0 -3219.18739477
930.0 -3220.82610213
940.0 -3222.46803221
950.0 -3224.11315406
960.0 -3225.76143748
970.0 -3227.41285295
980.0 -3229.06737159
990.0 -3230.72496522
1000.0 -3232.38560624
1010.0 -3234.04926768
1020.0 -3235.71592316
1030.0 -3237.38554683
1040.0 -3239.05811344
1050.0 -3240.73359823
1060.0 -3242.41197697
1070.0 -3244.09322594
1080.0 -3245.77732189
1090.0 -3247.46424203
1100.0 -3249.15396405
1110.0 -3250.84646604
1120.0 -3252.54172655
1130.0 -3254.23972453
1140.0 -3255.94043934
1150.0 -3257.64385071
1160.0 -3259.34993877
1170.0 -3261.05868399
1180.0 -3262.77006723
1190.0 -3264.48406966
1200.0 -3266.2006728
1210.0 -3267.91985852
1220.0 -3269.64160896
1230.0 -3271.36590659
1240.0 -3273.0927342
1250.0 -3274.82207484
1260.0 -3276.55391185
1270.0 -3278.28822885
1280.0 -3280.02500972
1290.0 -3281.76423862
1300.0 -3283.50589994
1310.0 -3285.24997832
1320.0 -3286.99645865
1330.0 -3288.74532605
1340.0 -3290.49656587
1350.0 -3292.25016366
1360.0 -3294.00610523
1370.0 -3295.76437655
1380.0 -3297.52496384
1390.0 -3299.28785349
1400.0 -3301.05303209
1410.0 -3302.82048644
1420.0 -3304.5902035
1430.0 -3306.36217042
1440.0 -3308.13637454
1450.0 -3309.91280336
1460.0 -3311.69144455
1470.0 -3313.47228594
1480.0 -3315.25531553
1490.0 -3317.04052148
1500.0 -3318.82789209
1510.0 -3320.61741581
1520.0 -3322.40908127
1530.0 -3324.20287719
1540.0 -3325.99879247
1550.0 -3327.79681615
1560.0 -3329.59693736
1570.0 -3331.39914542
1580.0 -3333.20342973
1590.0 -3335.00977985
1600.0 -3336.81818545
1610.0 -3338.62863631
1620.0 -3340.44112234
1630.0 -3342.25563358
1640.0 -3344.07216015
1650.0 -3345.89069231
1660.0 -3347.71122041
1670.0 -3349.53373493
1680.0 -3351.35822644
1690.0 -3353.1846856
1700.0 -3355.01310319
1710.0 -3356.84347009
1720.0 -3358.67577727
1730.0 -3360.5100158
1740.0 -3362.34617682
1750.0 -3364.18425161
1760.0 -3366.02423149
1770.0 -3367.86610791
1780.0 -3369.70987237
1790.0 -3371.55551649
1800.0 -3373.40303194
1810.0 -3375.25241051
1820.0 -3377.10364403
1830.0 -3378.95672445
1840.0 -3380.81164377
1850.0 -3382.66839408
1860.0 -3384.52696754
1870.0 -3386.38735639
1880.0 -3388.24955294
1890.0 -3390.11354957
1900.0 -3391.97933874
1910.0 -3393.84691297
1920.0 -3395.71626484
1930.0 -3397.58738703
1940.0 -3399.46027226
1950.0 -3401.33491332
1960.0 -3403.21130307
1970.0 -3405.08943443
1980.0 -3406.96930039
1990.0 -3408.85089398
2000.0 -3410.73420832
2010.0 -3412.61923657
2020.0 -3414.50597196
2030.0 -3416.39440777
2040.0 -3418.28453734
2050.0 -3420.17635406
2060.0 -3422.06985141
2070.0 -3423.96502287
2080.0 -3425.86186202
2090.0 -3427.76036247
2100.0 -3429.66051788
2110.0 -3431.56232199
2120.0 -3433.46576856
2130.0 -3435.37085142
2140.0 -3437.27756444
2150.0 -3439.18590154
2160.0 -3441.09585669
2170.0 -3443.00742392
2180.0 -3444.92059728
2190.0 -3446.8353709
2200.0 -3448.75173893
2210.0 -3450.66969558
2220.0 -3452.5892351
2230.0 -3454.51035178
2240.0 -3456.43303996
2250.0 -3458.35729403
2260.0 -3460.28310841
2270.0 -3462.21047757
2280.0 -3464.13939601
2290.0 -3466.06985829
2300.0 -3468.00185901
2310.0 -3469.93539279
2320.0 -3471.8704543
2330.0 -3473.80703826
2340.0 -3475.74513941
2350.0 -3477.68475256
2360.0 -3479.62587251
2370.0 -3481.56849415
2380.0 -3483.51261236
2390.0 -3485.45822209
2400.0 -3487.40531832
2410.0 -3489.35389605
2420.0 -3491.30395034
2430.0 -3493.25547626
2440.0 -3495.20846893
2450.0 -3497.1629235
2460.0 -3499.11883517
2470.0 -3501.07619914
2480.0 -3503.03501067
2490.0 -3504.99526504
2500.0 -3506.95695758
2510.0 -3508.92008363
2520.0 -3510.88463858
2530.0 -3512.85061784
2540.0 -3514.81801685
2550.0 -3516.7868311
2560.0 -3518.75705608
2570.0 -3520.72868733
2580.0 -3522.70172043
2590.0 -3524.67615097
2600.0 -3526.65197458
2610.0 -3528.6291869
2620.0 -3530.60778363
2630.0 -3532.58776048
2640.0 -3534.56911319
2650.0 -3536.55183753
2660.0 -3538.53592929
2670.0 -3540.5213843
2680.0 -3542.50819841
2690.0 -3544.4963675
2700.0 -3546.48588748
2710.0 -3548.47675427
2720.0 -3550.46896383
2730.0 -3552.46251215
2740.0 -3554.45739524
2750.0 -3556.45360913
2760.0 -3558.45114987
2770.0 -3560.45001357
2780.0 -3562.45019631
2790.0 -3564.45169425
2800.0 -3566.45450353
2810.0 -3568.45862034
2820.0 -3570.46404088
2830.0 -3572.47076139
2840.0 -3574.47877812
2850.0 -3576.48808734
2860.0 -3578.49868535
2870.0 -3580.51056847
2880.0 -3582.52373305
2890.0 -3584.53817546
2900.0 -3586.55389208
2910.0 -3588.57087933
2920.0 -3590.58913364
2930.0 -3592.60865145
2940.0 -3594.62942926
2950.0 -3596.65146355
2960.0 -3598.67475084
2970.0 -3600.69928767
2980.0 -3602.72507059
2990.0 -3604.7520962
3000.0 -3606.78036109
3010.0 -3608.80986188
3020.0 -3610.8405952
3030.0 -3612.87255773
3040.0 -3614.90574613
